Beryllium (JCPDS 22-111 EOS - unknown)
2 2.2859, 0.0, 0.0 1.5680
d (A)         I/I0    h   k   l
1.9795         30     1   0   0  
1.7925         25     0   0   2
1.7330        100     1   0   1   
1.3287          9     1   0   2 
1.1430          9     1   1   0  
1.0230          8     1   0   3   
0.9636          8     1   1   2
0.9541          6     2   0   1
