Alumina (JCPDS 0-173, EOS n/a)
2 2.505, 194.0, 5.0 1.6208
d (A)       I/I0    h   k   l
3.479        75     0   1   2
2.552        90     1   0   4
2.379        40     1   1   0     
2.085       100     1   1   3  
1.740        45     0   2   4   
1.601        80     1   1   6      
1.404        30     2   1   4    
1.374        50     3   0   0      
1.239        16     1   0  10