Silver (JCPDS 4-0784, EOS from ?)
1 4.0862 166.65 5.48 1.0
d (A)       I/I0    h   k   l
2.359       100     1   1   1
2.044        40     2   0   0
1.445        25     2   2   0
1.231        26     3   1   1
1.1796       12     2   2   2
1.0215        4     4   0   0
0.9375       15     3   3   1
0.9137       12     4   2   0
0.8341       13     4   2   2
